# Current (A)	Voltage (V)
-1.995053e-01	-1.981360e-01	-1.980202e-01	-1.972867e-01	-1.965735e-01	-1.961630e-01	-1.948276e-01	-1.945734e-01	-1.933599e-01	-1.930899e-01	-1.917710e-01	-1.918795e-01	-1.902172e-01	-1.898863e-01	-1.896699e-01	-1.883766e-01	-1.879939e-01	-1.866249e-01	-1.862007e-01	-1.848749e-01	-1.846810e-01	-1.835138e-01	-1.829771e-01	-1.816274e-01	-1.808803e-01	-1.799918e-01	-1.792958e-01	-1.779753e-01	-1.777483e-01	-1.760899e-01	-1.756591e-01	-1.749879e-01	-1.738318e-01	-1.728965e-01	-1.717377e-01	-1.705693e-01	-1.695003e-01	-1.690944e-01	-1.673030e-01	-1.670021e-01	-1.651367e-01	-1.643728e-01	-1.637283e-01	-1.620687e-01	-1.612733e-01	-1.596025e-01	-1.586316e-01	-1.568601e-01	-1.563157e-01	-1.544971e-01	-1.536298e-01	-1.520674e-01	-1.506075e-01	-1.490431e-01	-1.479043e-01	-1.459255e-01	-1.446731e-01	-1.433390e-01	-1.413754e-01	-1.402277e-01	-1.380837e-01	-1.365602e-01	-1.349137e-01	-1.329467e-01	-1.309833e-01	-1.287997e-01	-1.268050e-01	-1.245465e-01	-1.225244e-01	-1.199915e-01	-1.177784e-01	-1.150387e-01	-1.123051e-01	-1.096950e-01	-1.065323e-01	-1.032595e-01	-1.001287e-01	-9.630011e-02	-9.241638e-02	-8.827430e-02	-8.349092e-02	-7.848038e-02	-7.271282e-02	-6.630555e-02	-5.915209e-02	-5.080139e-02	-4.104327e-02	-2.977321e-02	-1.631751e-02	-3.966571e-04	1.843200e-02	4.059016e-02	6.639853e-02	9.618612e-02	1.299285e-01	1.677076e-01	2.094151e-01	2.549517e-01	3.040920e-01	3.567057e-01	4.123934e-01
-1.000000e+00	-9.800000e-01	-9.600000e-01	-9.400000e-01	-9.200000e-01	-9.000000e-01	-8.800000e-01	-8.600000e-01	-8.400000e-01	-8.200000e-01	-8.000000e-01	-7.800000e-01	-7.600000e-01	-7.400000e-01	-7.200000e-01	-7.000000e-01	-6.800000e-01	-6.600000e-01	-6.400000e-01	-6.200000e-01	-6.000000e-01	-5.800000e-01	-5.600000e-01	-5.400000e-01	-5.200000e-01	-5.000000e-01	-4.800000e-01	-4.600000e-01	-4.400000e-01	-4.200000e-01	-4.000000e-01	-3.800000e-01	-3.600000e-01	-3.400000e-01	-3.200000e-01	-3.000000e-01	-2.800000e-01	-2.600000e-01	-2.400000e-01	-2.200000e-01	-2.000000e-01	-1.800000e-01	-1.600000e-01	-1.400000e-01	-1.200000e-01	-1.000000e-01	-8.000000e-02	-6.000000e-02	-4.000000e-02	-2.000000e-02	0.000000e+00	2.000000e-02	4.000000e-02	6.000000e-02	8.000000e-02	1.000000e-01	1.200000e-01	1.400000e-01	1.600000e-01	1.800000e-01	2.000000e-01	2.200000e-01	2.400000e-01	2.600000e-01	2.800000e-01	3.000000e-01	3.200000e-01	3.400000e-01	3.600000e-01	3.800000e-01	4.000000e-01	4.200000e-01	4.400000e-01	4.600000e-01	4.800000e-01	5.000000e-01	5.200000e-01	5.400000e-01	5.600000e-01	5.800000e-01	6.000000e-01	6.200000e-01	6.400000e-01	6.600000e-01	6.800000e-01	7.000000e-01	7.200000e-01	7.400000e-01	7.600000e-01	7.800000e-01	8.000000e-01	8.200000e-01	8.400000e-01	8.600000e-01	8.800000e-01	9.000000e-01	9.200000e-01	9.400000e-01	9.600000e-01	9.800000e-01	1.000000e+00
